File: DSC_data/V. Soto/DSC_A1_1_0-100C_6Cmin_TXT.txt
Time	Temperature	Heat Flow (Normalized)
s	Â°C	W/g
60,0000	-0,135830	-0,165489
63,4000	-0,123964	-0,133091
66,8000	-0,0332993	0,0463955
70,2000	0,167616	0,105610
73,6000	0,438102	0,0659388
77,0000	0,745049	7,83396e-3
80,4000	1,06492	-0,0164085
83,8000	1,39290	-0,0369448
87,2000	1,72254	-0,0434321
90,6000	2,05424	-0,0457306
94,0000	2,38707	-0,0470685
97,4000	2,72207	-0,0483080
100,800	3,05865	-0,0492212
104,200	3,39595	-0,0503870
107,600	3,73289	-0,0513743
111,000	4,06947	-0,0520154
114,400	4,40850	-0,0524692
117,800	4,74701	-0,0531115
121,200	5,08634	-0,0535503
124,600	5,42450	-0,0541119
128,000	5,76555	-0,0545090
131,400	6,10499	-0,0548957
134,800	6,44330	-0,0553701
138,200	6,78400	-0,0555696
141,600	7,12389	-0,0559123
145,000	7,46391	-0,0561908
148,400	7,80476	-0,0566410
151,800	8,14419	-0,0570114
155,200	8,48443	-0,0570806
158,600	8,82586	-0,0574757
162,000	9,16516	-0,0578105
165,400	9,50691	-0,0582479
168,800	9,84798	-0,0581666
172,200	10,1884	-0,0586766
175,600	10,5285	-0,0587799
179,000	10,8681	-0,0590550
182,400	11,2096	-0,0598127
185,800	11,5503	-0,0602727
189,200	11,8909	-0,0605175
192,600	12,2305	-0,0608744
196,000	12,5701	-0,0611893
199,400	12,9116	-0,0615406
202,800	13,2510	-0,0619885
206,200	13,5914	-0,0621826
209,600	13,9336	-0,0627807
213,000	14,2737	-0,0632423
216,400	14,6148	-0,0637290
219,800	14,9548	-0,0643042
223,200	15,2946	-0,0645952
226,600	15,6353	-0,0649959
230,000	15,9751	-0,0652522
233,400	16,3161	-0,0657541
236,800	16,6559	-0,0660742
240,200	16,9959	-0,0666196
243,600	17,3355	-0,0670299
247,000	17,6760	-0,0677137
250,400	18,0173	-0,0682847
253,800	18,3580	-0,0689691
257,200	18,6980	-0,0695114
260,600	19,0393	-0,0701073
264,000	19,3785	-0,0705478
267,400	19,7189	-0,0709591
270,800	20,0596	-0,0715689
274,200	20,3987	-0,0722899
277,600	20,7385	-0,0728349
281,000	21,0793	-0,0732378
284,400	21,4191	-0,0737013
287,800	21,7597	-0,0742391
291,200	22,0993	-0,0747919
294,600	22,4401	-0,0754127
298,000	22,7819	-0,0760263
301,400	23,1207	-0,0768626
304,800	23,4617	-0,0776967
308,200	23,8009	-0,0781966
311,600	24,1413	-0,0788963
315,000	24,4814	-0,0798304
318,400	24,8215	-0,0805641
321,800	25,1632	-0,0811715
325,200	25,5033	-0,0818246
328,600	25,8415	-0,0826945
332,000	26,1824	-0,0833244
335,400	26,5224	-0,0840761
338,800	26,8634	-0,0849382
342,200	27,2034	-0,0859245
345,600	27,5440	-0,0867343
349,000	27,8839	-0,0875560
352,400	28,2240	-0,0884728
355,800	28,5645	-0,0892054
359,200	28,9044	-0,0902969
362,600	29,2451	-0,0909917
366,000	29,5853	-0,0921935
369,400	29,9252	-0,0930027
372,800	30,2650	-0,0940197
376,200	30,6051	-0,0948608
379,600	30,9464	-0,0956574
383,000	31,2863	-0,0973298
386,400	31,6263	-0,0980427
389,800	31,9657	-0,0991368
393,200	32,3050	-0,0999431
396,600	32,6446	-0,100668
400,000	32,9871	-0,101650
403,400	33,3262	-0,103097
406,800	33,6662	-0,103735
410,200	34,0062	-0,105001
413,600	34,3461	-0,106216
417,000	34,6861	-0,107263
420,400	35,0267	-0,108365
423,800	35,3660	-0,109305
427,200	35,7064	-0,110486
430,600	36,0470	-0,111526
434,000	36,3882	-0,112726
437,400	36,7265	-0,113989
440,800	37,0672	-0,115525
444,200	37,4068	-0,116448
447,600	37,7477	-0,118009
451,000	38,0882	-0,119297
454,400	38,4266	-0,120378
457,800	38,7668	-0,121415
461,200	39,1071	-0,122474
464,600	39,4479	-0,123935
468,000	39,7877	-0,125072
471,400	40,1280	-0,126318
474,800	40,4680	-0,127720
478,200	40,8083	-0,129013
481,600	41,1483	-0,130331
485,000	41,4882	-0,131614
488,400	41,8283	-0,132898
491,800	42,1684	-0,134525
495,200	42,5084	-0,135736
498,600	42,8482	-0,136562
502,000	43,1886	-0,138249
505,400	43,5290	-0,139377
508,800	43,8686	-0,140905
512,200	44,2079	-0,141896
515,600	44,5484	-0,143040
519,000	44,8890	-0,144337
522,400	45,2288	-0,145709
525,800	45,5687	-0,146917
529,200	45,9085	-0,148099
532,600	46,2489	-0,149579
536,000	46,5887	-0,150787
539,400	46,9293	-0,152227
542,800	47,2683	-0,153129
546,200	47,6101	-0,154196
549,600	47,9497	-0,155289
553,000	48,2893	-0,156568
556,400	48,6275	-0,157247
559,800	48,9705	-0,157989
563,200	49,3109	-0,159959
566,600	49,6496	-0,160763
570,000	49,9890	-0,161386
573,400	50,3308	-0,161986
576,800	50,6701	-0,163196
580,200	51,0088	-0,164174
583,600	51,3507	-0,164826
587,000	51,6907	-0,165793
590,400	52,0307	-0,166485
593,800	52,3710	-0,167035
597,200	52,7102	-0,168071
600,600	53,0504	-0,168641
604,000	53,3914	-0,169398
607,400	53,7311	-0,170054
610,800	54,0714	-0,170723
614,200	54,4108	-0,171001
617,600	54,7519	-0,171436
621,000	55,0924	-0,172149
624,400	55,4324	-0,172691
627,800	55,7721	-0,172970
631,200	56,1125	-0,173329
634,600	56,4524	-0,173723
638,000	56,7925	-0,174159
641,400	57,1333	-0,174423
644,800	57,4728	-0,174710
648,200	57,8143	-0,174809
651,600	58,1538	-0,175129
655,000	58,4945	-0,175200
658,400	58,8352	-0,175536
661,800	59,1751	-0,175875
665,200	59,5151	-0,175996
668,600	59,8546	-0,175909
672,000	60,1966	-0,175957
675,400	60,5360	-0,175885
678,800	60,8766	-0,175965
682,200	61,2178	-0,176158
685,600	61,5564	-0,176134
689,000	61,8970	-0,175930
692,400	62,2380	-0,175882
695,800	62,5783	-0,175809
699,200	62,9172	-0,175505
702,600	63,2579	-0,175336
706,000	63,5988	-0,175049
709,400	63,9388	-0,174898
712,800	64,2794	-0,174758
716,200	64,6203	-0,174289
719,600	64,9601	-0,173986
723,000	65,3006	-0,173761
726,400	65,6402	-0,173314
729,800	65,9808	-0,173078
733,200	66,3206	-0,172483
736,600	66,6630	-0,161594
740,000	67,0015	-0,163350
743,400	67,3423	-0,164291
746,800	67,6833	-0,165266
750,200	68,0225	-0,165931
753,600	68,3632	-0,166152
757,000	68,7024	-0,166165
760,400	69,0437	-0,165772
763,800	69,3844	-0,165516
767,200	69,7250	-0,165194
770,600	70,0647	-0,164796
774,000	70,4060	-0,164279
777,400	70,7470	-0,163789
780,800	71,0853	-0,163234
784,200	71,4258	-0,162247
787,600	71,7665	-0,161755
791,000	72,1073	-0,160995
794,400	72,4482	-0,160379
797,800	72,7874	-0,159719
801,200	73,1287	-0,158818
804,600	73,4680	-0,158002
808,000	73,8085	-0,157253
811,400	74,1490	-0,156564
814,800	74,4900	-0,155841
818,200	74,8297	-0,154458
821,600	75,1706	-0,153869
825,000	75,5108	-0,153325
828,400	75,8515	-0,152425
831,800	76,1907	-0,151358
835,200	76,5321	-0,150290
838,600	76,8717	-0,149391
842,000	77,2127	-0,148595
845,400	77,5537	-0,147551
848,800	77,8944	-0,146800
852,200	78,2334	-0,146041
855,600	78,5746	-0,144889
859,000	78,9160	-0,143885
862,400	79,2558	-0,142711
865,800	79,5957	-0,141700
869,200	79,9357	-0,140553
872,600	80,2767	-0,139091
876,000	80,6169	-0,137896
879,400	80,9568	-0,137230
882,800	81,2969	-0,136121
886,200	81,6378	-0,134905
889,600	81,9781	-0,133920
893,000	82,3188	-0,133151
896,400	82,6577	-0,132273
899,800	82,9987	-0,131214
903,200	83,3380	-0,130192
906,600	83,6798	-0,129044
910,000	84,0198	-0,128048
913,400	84,3603	-0,127226
916,800	84,7012	-0,126269
920,200	85,0412	-0,125188
923,600	85,3826	-0,123944
927,000	85,7237	-0,122885
930,400	86,0625	-0,121822
933,800	86,4022	-0,120624
937,200	86,7442	-0,119626
940,600	87,0859	-0,118853
944,000	87,4254	-0,117936
947,400	87,7650	-0,116744
950,800	88,1040	-0,115395
954,200	88,4466	-0,114307
957,600	88,7862	-0,113382
961,000	89,1268	-0,112308
964,400	89,4677	-0,111455
967,800	89,8073	-0,110156
971,200	90,1470	-0,109394
974,600	90,4889	-0,108105
978,000	90,8290	-0,107035
981,400	91,1685	-0,105747
984,800	91,5091	-0,104621
988,200	91,8495	-0,103444
991,600	92,1907	-0,102526
995,000	92,5300	-0,101581
998,400	92,8703	-0,100394
1001,80	93,2106	-0,0995076
1005,20	93,5508	-0,0984603
1008,60	93,8911	-0,0976054
1012,00	94,2319	-0,0966806
1015,40	94,5730	-0,0956174
1018,80	94,9123	-0,0946706
1022,20	95,2527	-0,0937358
1025,60	95,5940	-0,0927443
1029,00	95,9353	-0,0918623
1032,40	96,2754	-0,0909940
1035,80	96,6155	-0,0900551
1039,20	96,9555	-0,0888525
1042,60	97,2958	-0,0878254
1046,00	97,6359	-0,0870118
1049,40	97,9753	-0,0859668
1052,80	98,3166	-0,0850187
1056,20	98,6574	-0,0841131
1056,60	98,6966	-0,0840287