File: DSC_data/V. Soto/DSC_A1_1_0-100C_6Cmin_2.txt
Filename	DSC_A1_1_0-100C_6Cmin_2
Instrument name	DSC2A-00281 (192.168.1.101)
Operator	JDAA
rundate	5/7/2024
Sample name	DSC_A1_1_0-100C_6C/min_2
proceduresegments	Equilibrate 0,00000 °C; Isothermal 0,5 min; Data On ; Ramp 6,00 °C/min to 100,000 °C; Mark End of Cycle ; Ramp 6,00 °C/min to 0,00000 °C; Mark End of Cycle ; Ramp 6,00 °C/min to 100,000 °C; Mark End of Cycle ; Mark End of Cycle ; Data Off
[step]
Ramp 6,00 °C/min to 100,000 °C
Time	Temperature	Heat Flow (Normalized)
s	°C	W/g
30,0000	-0,132773	-0,168451
33,4000	-0,120280	-0,143144
36,8000	-0,0325687	0,0629577
40,2000	0,166197	0,175993
43,6000	0,436365	0,141879
47,0000	0,737753	0,0762308
50,4000	1,05538	0,0317410
53,8000	1,38022	8,27645e-3
57,2000	1,70897	-1,67974e-3
60,6000	2,04043	-5,28339e-3
64,0000	2,37307	-8,05231e-3
67,4000	2,70873	-9,86872e-3
70,8000	3,04393	-0,0112056
74,2000	3,38094	-0,0127086
77,6000	3,71939	-0,0140506
81,0000	4,05730	-0,0150796
84,4000	4,39373	-0,0158613
87,8000	4,73358	-0,0164236
91,2000	5,07154	-0,0167662
94,6000	5,41058	-0,0170224
98,0000	5,75090	-0,0172416
101,400	6,09111	-0,0173550
104,800	6,43171	-0,0178519
108,200	6,77055	-0,0180151
111,600	7,11158	-0,0180430
115,000	7,45185	-0,0183087
118,400	7,79100	-0,0183172
121,800	8,13139	-0,0186090
125,200	8,47307	-0,0187980
128,600	8,81277	-0,0192198
132,000	9,15337	-0,0192134
135,400	9,49225	-0,0191907
138,800	9,83314	-0,0190178
142,200	10,1736	-0,0191148
145,600	10,5149	-0,0193500
149,000	10,8550	-0,0194694
152,400	11,1952	-0,0195047
155,800	11,5353	-0,0194124
159,200	11,8762	-0,0192719
162,600	12,2165	-0,0192889
166,000	12,5570	-0,0193199
169,400	12,8970	-0,0195925
172,800	13,2385	-0,0197742
176,200	13,5778	-0,0197731
179,600	13,9190	-0,0200795
183,000	14,2594	-0,0199132
186,400	14,5996	-0,0200471
189,800	14,9411	-0,0202292
193,200	15,2811	-0,0204872
196,600	15,6223	-0,0207577
200,000	15,9623	-0,0208441
203,400	16,3026	-0,0209885
206,800	16,6439	-0,0213050
210,200	16,9841	-0,0216707
213,600	17,3230	-0,0218668
217,000	17,6633	-0,0220253
220,400	18,0049	-0,0221271
223,800	18,3437	-0,0222400
227,200	18,6841	-0,0223119
230,600	19,0250	-0,0224014
234,000	19,3648	-0,0223560
237,400	19,7052	-0,0225556
240,800	20,0463	-0,0228709
244,200	20,3855	-0,0236817
247,600	20,7258	-0,0239754
251,000	21,0656	-0,0242158
254,400	21,4068	-0,0241394
257,800	21,7469	-0,0244801
261,200	22,0861	-0,0248423
264,600	22,4272	-0,0246153
268,000	22,7681	-0,0248175
271,400	23,1084	-0,0250610
274,800	23,4476	-0,0255029
278,200	23,7881	-0,0256197
281,600	24,1278	-0,0257881
285,000	24,4689	-0,0259114
288,400	24,8094	-0,0262364
291,800	25,1484	-0,0264256
295,200	25,4898	-0,0269076
298,600	25,8304	-0,0271169
302,000	26,1699	-0,0274584
305,400	26,5108	-0,0278487
308,800	26,8498	-0,0280735
312,200	27,1908	-0,0280095
315,600	27,5319	-0,0284215
319,000	27,8713	-0,0287673
322,400	28,2122	-0,0291675
325,800	28,5515	-0,0294313
329,200	28,8931	-0,0295333
332,600	29,2326	-0,0299378
336,000	29,5728	-0,0302006
339,400	29,9129	-0,0304376
342,800	30,2523	-0,0308538
346,200	30,5931	-0,0313864
349,600	30,9337	-0,0317429
353,000	31,2745	-0,0320928
356,400	31,6142	-0,0322664
359,800	31,9540	-0,0322913
363,200	32,2943	-0,0328096
366,600	32,6348	-0,0333651
370,000	32,9749	-0,0339062
373,400	33,3151	-0,0344024
376,800	33,6546	-0,0347043
380,200	33,9953	-0,0347955
383,600	34,3365	-0,0352885
387,000	34,6759	-0,0358370
390,400	35,0155	-0,0364490
393,800	35,3565	-0,0367138
397,200	35,6971	-0,0372125
400,600	36,0368	-0,0375383
404,000	36,3756	-0,0379476
407,400	36,7164	-0,0384666
410,800	37,0586	-0,0389037
414,200	37,3971	-0,0393818
417,600	37,7374	-0,0398788
421,000	38,0776	-0,0403762
424,400	38,4180	-0,0407695
427,800	38,7590	-0,0416021
431,200	39,0980	-0,0418975
434,600	39,4391	-0,0422604
438,000	39,7775	-0,0427543
441,400	40,1191	-0,0431742
444,800	40,4586	-0,0435329
448,200	40,7983	-0,0441566
451,600	41,1387	-0,0446558
455,000	41,4786	-0,0453057
458,400	41,8197	-0,0457662
461,800	42,1597	-0,0463976
465,200	42,4992	-0,0468729
468,600	42,8384	-0,0475750
472,000	43,1805	-0,0480167
475,400	43,5208	-0,0490711
478,800	43,8597	-0,0494800
482,200	44,1998	-0,0498319
485,600	44,5414	-0,0502589
489,000	44,8807	-0,0510873
492,400	45,2213	-0,0515703
495,800	45,5613	-0,0522763
499,200	45,9009	-0,0527748
502,600	46,2412	-0,0535706
506,000	46,5809	-0,0543661
509,400	46,9218	-0,0547370
512,800	47,2625	-0,0554393
516,200	47,6008	-0,0560507
519,600	47,9413	-0,0565749
523,000	48,2822	-0,0571349
526,400	48,6213	-0,0578711
529,800	48,9629	-0,0578894
533,200	49,3033	-0,0603625
536,600	49,6424	-0,0608412
540,000	49,9823	-0,0609457
543,400	50,3233	-0,0611502
546,800	50,6637	-0,0617617
550,200	51,0036	-0,0624636
553,600	51,3438	-0,0628832
557,000	51,6838	-0,0634823
560,400	52,0247	-0,0638621
563,800	52,3641	-0,0645004
567,200	52,7040	-0,0651671
570,600	53,0448	-0,0656509
574,000	53,3847	-0,0664235
577,400	53,7249	-0,0669880
580,800	54,0654	-0,0679065
584,200	54,4050	-0,0685540
587,600	54,7444	-0,0687755
591,000	55,0847	-0,0695614
594,400	55,4263	-0,0701897
597,800	55,7657	-0,0705182
601,200	56,1065	-0,0710205
604,600	56,4456	-0,0715730
608,000	56,7860	-0,0720867
611,400	57,1266	-0,0725474
614,800	57,4672	-0,0728868
618,200	57,8075	-0,0733804
621,600	58,1477	-0,0738088
625,000	58,4866	-0,0742984
628,400	58,8266	-0,0743537
631,800	59,1680	-0,0749227
635,200	59,5069	-0,0753347
638,600	59,8486	-0,0754809
642,000	60,1878	-0,0759491
645,400	60,5276	-0,0762151
648,800	60,8681	-0,0765763
652,200	61,2087	-0,0767161
655,600	61,5484	-0,0768800
659,000	61,8893	-0,0772777
662,400	62,2297	-0,0776292
665,800	62,5698	-0,0776813
669,200	62,9090	-0,0779651
672,600	63,2490	-0,0779378
676,000	63,5897	-0,0783235
679,400	63,9296	-0,0786261
682,800	64,2700	-0,0788253
686,200	64,6108	-0,0789123
689,600	64,9502	-0,0790250
693,000	65,2901	-0,0791656
696,400	65,6312	-0,0790280
699,800	65,9714	-0,0790496
703,200	66,3111	-0,0789585
706,600	66,6519	-0,0789886
710,000	66,9921	-0,0789901
713,400	67,3336	-0,0790275
716,800	67,6728	-0,0788665
720,200	68,0134	-0,0788508
723,600	68,3535	-0,0791033
727,000	68,6927	-0,0787183
730,400	69,0342	-0,0784737
733,800	69,3742	-0,0786050
737,200	69,7146	-0,0784017
740,600	70,0552	-0,0781062
744,000	70,3955	-0,0781119
747,400	70,7350	-0,0781972
750,800	71,0755	-0,0780769
754,200	71,4161	-0,0778235
757,600	71,7557	-0,0774414
761,000	72,0962	-0,0771174
764,400	72,4357	-0,0768597
767,800	72,7775	-0,0765953
771,200	73,1170	-0,0763544
774,600	73,4574	-0,0761224
778,000	73,7973	-0,0758192
781,400	74,1382	-0,0753892
784,800	74,4774	-0,0750705
788,200	74,8180	-0,0744987
791,600	75,1587	-0,0741694
795,000	75,4982	-0,0736638
798,400	75,8401	-0,0733597
801,800	76,1788	-0,0730018
805,200	76,5201	-0,0726443
808,600	76,8594	-0,0720263
812,000	77,2008	-0,0716818
815,400	77,5402	-0,0709464
818,800	77,8816	-0,0706305
822,200	78,2216	-0,0700801
825,600	78,5619	-0,0694902
829,000	78,9021	-0,0690176
832,400	79,2422	-0,0685069
835,800	79,5826	-0,0677751
839,200	79,9234	-0,0673025
842,600	80,2628	-0,0667620
846,000	80,6038	-0,0666257
849,400	80,9449	-0,0660481
852,800	81,2832	-0,0655198
856,200	81,6240	-0,0647767
859,600	81,9639	-0,0644209
863,000	82,3048	-0,0636835
866,400	82,6456	-0,0631950
869,800	82,9869	-0,0626523
873,200	83,3266	-0,0622719
876,600	83,6665	-0,0619331
880,000	84,0072	-0,0611802
883,400	84,3473	-0,0605382
886,800	84,6885	-0,0602284
890,200	85,0283	-0,0596819
893,600	85,3671	-0,0588661
897,000	85,7085	-0,0581958
900,400	86,0482	-0,0575357
903,800	86,3889	-0,0570784
907,200	86,7298	-0,0564294
910,600	87,0706	-0,0559715
914,000	87,4107	-0,0552653
917,400	87,7507	-0,0547004
920,800	88,0911	-0,0540139
924,200	88,4302	-0,0534780
927,600	88,7721	-0,0528805
931,000	89,1118	-0,0522734
934,400	89,4517	-0,0516624
937,800	89,7919	-0,0510139
941,200	90,1327	-0,0504040
944,600	90,4724	-0,0497544
948,000	90,8133	-0,0490715
951,400	91,1526	-0,0484981
954,800	91,4933	-0,0479272
958,200	91,8341	-0,0469808
961,600	92,1741	-0,0461472
965,000	92,5145	-0,0456911
968,400	92,8554	-0,0449722
971,800	93,1937	-0,0444702
975,200	93,5358	-0,0437297
978,600	93,8761	-0,0432195
982,000	94,2168	-0,0423103
985,400	94,5564	-0,0417929
988,800	94,8968	-0,0411777
992,200	95,2380	-0,0405813
995,600	95,5769	-0,0400215
999,000	95,9175	-0,0391225
1002,40	96,2582	-0,0386770
1005,80	96,5989	-0,0382399
1009,20	96,9389	-0,0374120
1012,60	97,2784	-0,0368325
1016,00	97,6190	-0,0361507
1019,40	97,9593	-0,0356390
1022,80	98,3000	-0,0348842
1026,20	98,6393	-0,0343899
1029,60	98,9809	-0,0335026
1030,20	99,0407	-0,0332894

[step]
Ramp 6,00 °C/min to 0,00000 °C
Time	Temperature	Heat Flow (Normalized)
s	°C	W/g
1030,30	99,0503	-0,0332636
1033,70	99,3589	-0,0375978
1037,10	99,4558	-0,535757
1040,50	99,3183	-0,727364
1043,90	99,0768	-0,588102
1047,30	98,7914	-0,476161
1050,70	98,4843	-0,416679
1054,10	98,1633	-0,380090
1057,50	97,8363	-0,359326
1060,90	97,5040	-0,347325
1064,30	97,1701	-0,342106
1067,70	96,8341	-0,336981
1071,10	96,4978	-0,333783
1074,50	96,1607	-0,331473
1077,90	95,8240	-0,329292
1081,30	95,4857	-0,327301
1084,70	95,1482	-0,325704
1088,10	94,8096	-0,324480
1091,50	94,4709	-0,322954
1094,90	94,1324	-0,321483
1098,30	93,7941	-0,320131
1101,70	93,4548	-0,318931
1105,10	93,1160	-0,318157
1108,50	92,7768	-0,317369
1111,90	92,4364	-0,316434
1115,30	92,0971	-0,315530
1118,70	91,7567	-0,314847
1122,10	91,4175	-0,314038
1125,50	91,0782	-0,313541
1128,90	90,7382	-0,312839
1132,30	90,3980	-0,312187
1135,70	90,0599	-0,311683
1139,10	89,7189	-0,311072
1142,50	89,3801	-0,310581
1145,90	89,0394	-0,310072
1149,30	88,7008	-0,309861
1152,70	88,3601	-0,309949
1156,10	88,0209	-0,309698
1159,50	87,6805	-0,309319
1162,90	87,3406	-0,308887
1166,30	86,9998	-0,308660
1169,70	86,6604	-0,308269
1173,10	86,3218	-0,308092
1176,50	85,9808	-0,307698
1179,90	85,6401	-0,307400
1183,30	85,3010	-0,307099
1186,70	84,9609	-0,306820
1190,10	84,6219	-0,306764
1193,50	84,2812	-0,306773
1196,90	83,9411	-0,306618
1200,30	83,6018	-0,306249
1203,70	83,2615	-0,306091
1207,10	82,9221	-0,305777
1210,50	82,5804	-0,305782
1213,90	82,2423	-0,305533
1217,30	81,9009	-0,305204
1220,70	81,5622	-0,305251
1224,10	81,2220	-0,305170
1227,50	80,8821	-0,304960
1230,90	80,5416	-0,304907
1234,30	80,2018	-0,304893
1237,70	79,8624	-0,304785
1241,10	79,5206	-0,304671
1244,50	79,1818	-0,304604
1247,90	78,8417	-0,304435
1251,30	78,5017	-0,304771
1254,70	78,1622	-0,304684
1258,10	77,8222	-0,304541
1261,50	77,4829	-0,304644
1264,90	77,1422	-0,304639
1268,30	76,8023	-0,304562
1271,70	76,4625	-0,304387
1275,10	76,1223	-0,304227
1278,50	75,7824	-0,304066
1281,90	75,4432	-0,304272
1285,30	75,1030	-0,304352
1288,70	74,7631	-0,304364
1292,10	74,4235	-0,304496
1295,50	74,0839	-0,304788
1298,90	73,7438	-0,304831
1302,30	73,4025	-0,304897
1305,70	73,0637	-0,304868
1309,10	72,7233	-0,304814
1312,50	72,3845	-0,304729
1315,90	72,0436	-0,304859
1319,30	71,7052	-0,304879
1322,70	71,3642	-0,304892
1326,10	71,0249	-0,304711
1329,50	70,6852	-0,304666
1332,90	70,3438	-0,304779
1336,30	70,0050	-0,304888
1339,70	69,6652	-0,305018
1343,10	69,3258	-0,304912
1346,50	68,9856	-0,304908
1349,90	68,6454	-0,304735
1353,30	68,3062	-0,304503
1356,70	67,9663	-0,304837
1360,10	67,6272	-0,304987
1363,50	67,2870	-0,305002
1366,90	66,9470	-0,304968
1370,30	66,6082	-0,304855
1373,70	66,2685	-0,304802
1377,10	65,9290	-0,304874
1380,50	65,5894	-0,304728
1383,90	65,2496	-0,304917
1387,30	64,9096	-0,305135
1390,70	64,5691	-0,305442
1394,10	64,2288	-0,305600
1397,50	63,8889	-0,305596
1400,90	63,5505	-0,305641
1404,30	63,2100	-0,305815
1407,70	62,8693	-0,305950
1411,10	62,5298	-0,305788
1414,50	62,1888	-0,305728
1417,90	61,8494	-0,305891
1421,30	61,5086	-0,306071
1424,70	61,1698	-0,305888
1428,10	60,8299	-0,305886
1431,50	60,4893	-0,306072
1434,90	60,1497	-0,306346
1438,30	59,8089	-0,306666
1441,70	59,4686	-0,306575
1445,10	59,1295	-0,306566
1448,50	58,7894	-0,306488
1451,90	58,4496	-0,306765
1455,30	58,1084	-0,306958
1458,70	57,7692	-0,306902
1462,10	57,4282	-0,307045
1465,50	57,0879	-0,306947
1468,90	56,7480	-0,306908
1472,30	56,4079	-0,306901
1475,70	56,0677	-0,307082
1479,10	55,7290	-0,307208
1482,50	55,3879	-0,307211
1485,90	55,0474	-0,307616
1489,30	54,7064	-0,307758
1492,70	54,3667	-0,307916
1496,10	54,0266	-0,307902
1499,50	53,6864	-0,307934
1502,90	53,3464	-0,307993
1506,30	53,0063	-0,308072
1509,70	52,6661	-0,308193
1513,10	52,3266	-0,308208
1516,50	51,9859	-0,308424
1519,90	51,6467	-0,308721
1523,30	51,3050	-0,308601
1526,70	50,9646	-0,308506
1530,10	50,6259	-0,308448
1533,50	50,2847	-0,308716
1536,90	49,9450	-0,309008
1540,30	49,6036	-0,308892
1543,70	49,2669	-0,308817
1547,10	48,9253	-0,309113
1550,50	48,5853	-0,309429
1553,90	48,2451	-0,309763
1557,30	47,9044	-0,309647
1560,70	47,5647	-0,309708
1564,10	47,2244	-0,309940
1567,50	46,8846	-0,309996
1570,90	46,5436	-0,310046
1574,30	46,2038	-0,310156
1577,70	45,8633	-0,310248
1581,10	45,5225	-0,310273
1584,50	45,1835	-0,310248
1587,90	44,8421	-0,310324
1591,30	44,5032	-0,310571
1594,70	44,1621	-0,310939
1598,10	43,8232	-0,310951
1601,50	43,4828	-0,311033
1604,90	43,1425	-0,311160
1608,30	42,8027	-0,311269
1611,70	42,4622	-0,311352
1615,10	42,1222	-0,311335
1618,50	41,7826	-0,311338
1621,90	41,4416	-0,311393
1625,30	41,1016	-0,311585
1628,70	40,7623	-0,311702
1632,10	40,4224	-0,311879
1635,50	40,0817	-0,311821
1638,90	39,7420	-0,312035
1642,30	39,4023	-0,312263
1645,70	39,0620	-0,312414
1649,10	38,7209	-0,312465
1652,50	38,3815	-0,312536
1655,90	38,0416	-0,312636
1659,30	37,7013	-0,313004
1662,70	37,3608	-0,313036
1666,10	37,0211	-0,313145
1669,50	36,6808	-0,313354
1672,90	36,3412	-0,313334
1676,30	36,0021	-0,313691
1679,70	35,6605	-0,313847
1683,10	35,3211	-0,314033
1686,50	34,9809	-0,314183
1689,90	34,6408	-0,314356
1693,30	34,3009	-0,313988
1696,70	33,9609	-0,314263
1700,10	33,6205	-0,314436
1703,50	33,2801	-0,314590
1706,90	32,9393	-0,314858
1710,30	32,5994	-0,314925
1713,70	32,2599	-0,315142
1717,10	31,9207	-0,315259
1720,50	31,5802	-0,315245
1723,90	31,2409	-0,315513
1727,30	30,8987	-0,315783
1730,70	30,5600	-0,315885
1734,10	30,2197	-0,316076
1737,50	29,8786	-0,316289
1740,90	29,5395	-0,316372
1744,30	29,1999	-0,316567
1747,70	28,8598	-0,316584
1751,10	28,5189	-0,316783
1754,50	28,1787	-0,316786
1757,90	27,8394	-0,316911
1761,30	27,4994	-0,316968
1764,70	27,1589	-0,317215
1768,10	26,8189	-0,317193
1771,50	26,4784	-0,317309
1774,90	26,1383	-0,317401
1778,30	25,7992	-0,317485
1781,70	25,4585	-0,317635
1785,10	25,1180	-0,317690
1788,50	24,7785	-0,317777
1791,90	24,4386	-0,317888
1795,30	24,0990	-0,318209
1798,70	23,7582	-0,318343
1802,10	23,4181	-0,318187
1805,50	23,0776	-0,318119
1808,90	22,7379	-0,318399
1812,30	22,3986	-0,318339
1815,70	22,0575	-0,318406
1819,10	21,7174	-0,318389
1822,50	21,3769	-0,318418
1825,90	21,0369	-0,318383
1829,30	20,6977	-0,318595
1832,70	20,3585	-0,318796
1836,10	20,0159	-0,318917
1839,50	19,6773	-0,319050
1842,90	19,3377	-0,319489
1846,30	18,9967	-0,319522
1849,70	18,6577	-0,319573
1853,10	18,3169	-0,319755
1856,50	17,9775	-0,320044
1859,90	17,6387	-0,320111
1863,30	17,2958	-0,320338
1866,70	16,9560	-0,320260
1870,10	16,6167	-0,320221
1873,50	16,2766	-0,320424
1876,90	15,9371	-0,320344
1880,30	15,5966	-0,320470
1883,70	15,2554	-0,320776
1887,10	14,9161	-0,320803
1890,50	14,5762	-0,320878
1893,90	14,2352	-0,320874
1897,30	13,8966	-0,321110
1900,70	13,5570	-0,321404
1904,10	13,2164	-0,321357
1907,50	12,8760	-0,321444
1910,90	12,5354	-0,321551
1914,30	12,1952	-0,321642
1917,70	11,8554	-0,321774
1921,10	11,5157	-0,321754
1924,50	11,1753	-0,321819
1927,90	10,8351	-0,321885
1931,30	10,4958	-0,321789
1934,70	10,1551	-0,321876
1938,10	9,81525	-0,322022
1941,50	9,47384	-0,322304
1944,90	9,13379	-0,322500
1948,30	8,79415	-0,322562
1951,70	8,45370	-0,322725
1955,10	8,11409	-0,322781
1958,50	7,77366	-0,322867
1961,90	7,43413	-0,322933
1965,30	7,09235	-0,323094
1968,70	6,75299	-0,322925
1972,10	6,41420	-0,323286
1975,50	6,07376	-0,323362
1978,90	5,73388	-0,323484
1982,30	5,39335	-0,323555
1985,70	5,05347	-0,323635
1989,10	4,71322	-0,323728
1992,50	4,37226	-0,323931
1995,90	4,03326	-0,323790
1999,30	3,69272	-0,324150
2002,70	3,35274	-0,324055
2006,10	3,01322	-0,324451
2009,50	2,67225	-0,324596
2012,90	2,33253	-0,324630
2016,30	1,99281	-0,324664
2019,70	1,65239	-0,324769
2023,10	1,31247	-0,324818
2026,50	0,973093	-0,325206
2029,90	0,632937	-0,325360
2030,30	0,593926	-0,325391

[step]
Ramp 6,00 °C/min to 100,000 °C
Time	Temperature	Heat Flow (Normalized)
s	°C	W/g
2030,40	0,582494	-0,325398
2033,80	0,273642	-0,275688
2037,20	0,157956	0,147399
2040,60	0,265545	0,366554
2044,00	0,491659	0,268565
2047,40	0,768701	0,143628
2050,80	1,06912	0,0749723
2054,20	1,38438	0,0355895
2057,60	1,70655	0,0168446
2061,00	2,03561	6,10573e-3
2064,40	2,36617	-1,27144e-3
2067,80	2,69954	-3,72094e-3
2071,20	3,03550	-5,72221e-3
2074,60	3,36983	-7,56816e-3
2078,00	3,70631	-9,14923e-3
2081,40	4,04382	-0,0103454
2084,80	4,38115	-0,0114231
2088,20	4,71829	-0,0124114
2091,60	5,05636	-0,0129069
2095,00	5,39632	-0,0133202
2098,40	5,73564	-0,0136119
2101,80	6,07456	-0,0138241
2105,20	6,41274	-0,0142837
2108,60	6,75429	-0,0143994
2112,00	7,09408	-0,0145670
2115,40	7,43472	-0,0148042
2118,80	7,77400	-0,0149716
2122,20	8,11510	-0,0150241
2125,60	8,45435	-0,0150301
2129,00	8,79528	-0,0149698
2132,40	9,13475	-0,0148863
2135,80	9,47415	-0,0148088
2139,20	9,81586	-0,0143091
2142,60	10,1561	-0,0143219
2146,00	10,4969	-0,0142031
2149,40	10,8376	-0,0143126
2152,80	11,1777	-0,0142167
2156,20	11,5186	-0,0142329
2159,60	11,8585	-0,0141264
2163,00	12,1997	-0,0140731
2166,40	12,5408	-0,0139206
2169,80	12,8809	-0,0138705
2173,20	13,2210	-0,0139291
2176,60	13,5613	-0,0137507
2180,00	13,9006	-0,0138288
2183,40	14,2430	-0,0136019
2186,80	14,5830	-0,0136405
2190,20	14,9237	-0,0136029
2193,60	15,2624	-0,0134061
2197,00	15,6039	-0,0134166
2200,40	15,9439	-0,0132539
2203,80	16,2840	-0,0130256
2207,20	16,6260	-0,0132176
2210,60	16,9651	-0,0132549
2214,00	17,3064	-0,0133133
2217,40	17,6471	-0,0133741
2220,80	17,9875	-0,0135285
2224,20	18,3268	-0,0132835
2227,60	18,6671	-0,0129073
2231,00	19,0082	-0,0126900
2234,40	19,3489	-0,0126800
2237,80	19,6884	-0,0128438
2241,20	20,0305	-0,0128886
2244,60	20,3683	-0,0127164
2248,00	20,7090	-0,0122967
2251,40	21,0498	-0,0123391
2254,80	21,3911	-0,0122127
2258,20	21,7306	-0,0121420
2261,60	22,0714	-0,0120824
2265,00	22,4121	-0,0121522
2268,40	22,7523	-0,0118982
2271,80	23,0913	-0,0117232
2275,20	23,4336	-0,0117841
2278,60	23,7721	-0,0118705
2282,00	24,1132	-0,0117581
2285,40	24,4534	-0,0117263
2288,80	24,7928	-0,0117198
2292,20	25,1342	-0,0115302
2295,60	25,4738	-0,0116977
2299,00	25,8148	-0,0117681
2302,40	26,1550	-0,0119170
2305,80	26,4957	-0,0119272
2309,20	26,8359	-0,0118315
2312,60	27,1758	-0,0116155
2316,00	27,5159	-0,0118056
2319,40	27,8569	-0,0118175
2322,80	28,1971	-0,0117224
2326,20	28,5369	-0,0117321
2329,60	28,8767	-0,0118825
2333,00	29,2180	-0,0118979
2336,40	29,5583	-0,0115951
2339,80	29,8988	-0,0116444
2343,20	30,2395	-0,0117330
2346,60	30,5790	-0,0114360
2350,00	30,9193	-0,0113892
2353,40	31,2602	-0,0114039
2356,80	31,5989	-0,0115064
2360,20	31,9410	-0,0112349
2363,60	32,2815	-0,0110991
2367,00	32,6209	-0,0111351
2370,40	32,9622	-0,0110347
2373,80	33,3011	-0,0107679
2377,20	33,6423	-0,0108878
2380,60	33,9824	-0,0108395
2384,00	34,3233	-0,0108293
2387,40	34,6623	-0,0108138
2390,80	35,0024	-0,0108212
2394,20	35,3440	-0,0108021
2397,60	35,6841	-0,0111250
2401,00	36,0236	-0,0111722
2404,40	36,3636	-0,0109047
2407,80	36,7025	-0,0104884
2411,20	37,0443	-0,0106398
2414,60	37,3853	-0,0104884
2418,00	37,7253	-0,0104654
2421,40	38,0642	-0,0105620
2424,80	38,4057	-0,0104296
2428,20	38,7460	-0,0104132
2431,60	39,0864	-0,0101453
2435,00	39,4261	-0,0101473
2438,40	39,7668	-0,0100498
2441,80	40,1063	-9,85658e-3
2445,20	40,4471	-9,93106e-3
2448,60	40,7876	-9,72651e-3
2452,00	41,1265	-9,71280e-3
2455,40	41,4680	-9,47974e-3
2458,80	41,8085	-9,49870e-3
2462,20	42,1485	-9,77047e-3
2465,60	42,4884	-9,70215e-3
2469,00	42,8283	-9,63877e-3
2472,40	43,1685	-9,67335e-3
2475,80	43,5090	-9,49948e-3
2479,20	43,8490	-9,37562e-3
2482,60	44,1890	-9,38012e-3
2486,00	44,5293	-9,14905e-3
2489,40	44,8711	-8,83411e-3
2492,80	45,2117	-9,04333e-3
2496,20	45,5501	-9,03056e-3
2499,60	45,8914	-8,89708e-3
2503,00	46,2317	-8,74797e-3
2506,40	46,5729	-8,68429e-3
2509,80	46,9115	-8,48319e-3
2513,20	47,2522	-8,45111e-3
2516,60	47,5932	-8,28494e-3
2520,00	47,9336	-8,18062e-3
2523,40	48,2739	-8,28794e-3
2526,80	48,6116	-8,02184e-3
2530,20	48,9539	-7,43759e-3
2533,60	49,2938	-8,26577e-3
2537,00	49,6338	-8,04397e-3
2540,40	49,9733	-7,64708e-3
2543,80	50,3140	-7,06358e-3
2547,20	50,6546	-7,05152e-3
2550,60	50,9940	-7,13432e-3
2554,00	51,3358	-6,95943e-3
2557,40	51,6756	-6,82941e-3
2560,80	52,0157	-6,97774e-3
2564,20	52,3552	-6,70635e-3
2567,60	52,6953	-6,50438e-3
2571,00	53,0355	-5,99618e-3
2574,40	53,3771	-6,17750e-3
2577,80	53,7157	-6,10470e-3
2581,20	54,0580	-5,87616e-3
2584,60	54,3969	-6,02957e-3
2588,00	54,7369	-5,83319e-3
2591,40	55,0788	-5,58070e-3
2594,80	55,4187	-5,64641e-3
2598,20	55,7579	-5,62875e-3
2601,60	56,0988	-5,65803e-3
2605,00	56,4385	-5,07360e-3
2608,40	56,7790	-5,18937e-3
2611,80	57,1210	-4,84063e-3
2615,20	57,4602	-5,05817e-3
2618,60	57,7999	-4,86667e-3
2622,00	58,1401	-4,69559e-3
2625,40	58,4804	-4,56884e-3
2628,80	58,8208	-4,62097e-3
2632,20	59,1612	-4,28891e-3
2635,60	59,5013	-4,25520e-3
2639,00	59,8418	-3,93320e-3
2642,40	60,1825	-3,78600e-3
2645,80	60,5224	-3,67446e-3
2649,20	60,8630	-3,74273e-3
2652,60	61,2025	-3,76156e-3
2656,00	61,5431	-3,36486e-3
2659,40	61,8833	-3,02356e-3
2662,80	62,2238	-3,08867e-3
2666,20	62,5651	-3,38159e-3
2669,60	62,9045	-3,12787e-3
2673,00	63,2438	-2,73747e-3
2676,40	63,5842	-2,80821e-3
2679,80	63,9241	-2,76924e-3
2683,20	64,2646	-2,54863e-3
2686,60	64,6054	-2,44169e-3
2690,00	64,9458	-2,36585e-3
2693,40	65,2870	-2,38553e-3
2696,80	65,6273	-2,11358e-3
2700,20	65,9674	-2,03256e-3
2703,60	66,3074	-1,80673e-3
2707,00	66,6468	-1,53005e-3
2710,40	66,9881	-1,33464e-3
2713,80	67,3277	-1,21166e-3
2717,20	67,6689	-1,14826e-3
2720,60	68,0090	-1,08724e-3
2724,00	68,3486	-9,23764e-4
2727,40	68,6889	-6,70152e-4
2730,80	69,0290	-7,50695e-4
2734,20	69,3699	-3,08944e-4
2737,60	69,7092	-3,79147e-4
2741,00	70,0496	-3,67770e-4
2744,40	70,3919	-2,91332e-4
2747,80	70,7303	-4,03449e-4
2751,20	71,0703	-9,40994e-5
2754,60	71,4109	9,49810e-5
2758,00	71,7504	3,83731e-4
2761,40	72,0913	6,02140e-4
2764,80	72,4314	6,20825e-4
2768,20	72,7724	7,67070e-4
2771,60	73,1124	8,43684e-4
2775,00	73,4520	1,16993e-3
2778,40	73,7922	1,05902e-3
2781,80	74,1317	1,34464e-3
2785,20	74,4733	1,92563e-3
2788,60	74,8137	2,02329e-3
2792,00	75,1537	2,04338e-3
2795,40	75,4936	2,07605e-3
2798,80	75,8341	2,35473e-3
2802,20	76,1741	2,34921e-3
2805,60	76,5144	2,63641e-3
2809,00	76,8543	2,81617e-3
2812,40	77,1946	2,88622e-3
2815,80	77,5352	3,20393e-3
2819,20	77,8751	3,47130e-3
2822,60	78,2165	3,52566e-3
2826,00	78,5548	3,70716e-3
2829,40	78,8952	3,91176e-3
2832,80	79,2359	4,14196e-3
2836,20	79,5763	4,31770e-3
2839,60	79,9171	4,49963e-3
2843,00	80,2573	4,60123e-3
2846,40	80,5969	4,60420e-3
2849,80	80,9381	4,85001e-3
2853,20	81,2766	4,86754e-3
2856,60	81,6170	5,19562e-3
2860,00	81,9569	5,13093e-3
2863,40	82,2992	5,40933e-3
2866,80	82,6380	5,47666e-3
2870,20	82,9786	5,41866e-3
2873,60	83,3182	5,69437e-3
2877,00	83,6594	6,03038e-3
2880,40	83,9996	6,13894e-3
2883,80	84,3396	6,07626e-3
2887,20	84,6808	6,19409e-3
2890,60	85,0195	6,15506e-3
2894,00	85,3599	6,59094e-3
2897,40	85,6995	6,53134e-3
2900,80	86,0402	6,67793e-3
2904,20	86,3811	6,78303e-3
2907,60	86,7205	6,96022e-3
2911,00	87,0617	6,85462e-3
2914,40	87,4021	6,95346e-3
2917,80	87,7417	6,95749e-3
2921,20	88,0825	7,16894e-3
2924,60	88,4226	7,39068e-3
2928,00	88,7614	7,63583e-3
2931,40	89,1029	7,71064e-3
2934,80	89,4422	7,79226e-3
2938,20	89,7821	7,94096e-3
2941,60	90,1238	8,24082e-3
2945,00	90,4640	8,53463e-3
2948,40	90,8032	8,31081e-3
2951,80	91,1447	8,35729e-3
2955,20	91,4837	8,42376e-3
2958,60	91,8249	8,68420e-3
2962,00	92,1649	8,88245e-3
2965,40	92,5049	9,09357e-3
2968,80	92,8455	9,27054e-3
2972,20	93,1852	9,13875e-3
2975,60	93,5266	9,12271e-3
2979,00	93,8661	9,45889e-3
2982,40	94,2060	9,79287e-3
2985,80	94,5465	9,63159e-3
2989,20	94,8865	9,57587e-3
2992,60	95,2263	9,70106e-3
2996,00	95,5677	9,77724e-3
2999,40	95,9065	9,72397e-3
3002,80	96,2478	9,94881e-3
3006,20	96,5873	9,96413e-3
3009,60	96,9275	9,96236e-3
3013,00	97,2674	0,0101112
3016,40	97,6087	0,0103369
3019,80	97,9481	0,0103125
3023,20	98,2893	0,0105209
3026,60	98,6293	0,0105506
3030,00
3030,40